File: Data/8-Pixel Device/backward/devices/sample 1[4]/sample 1[4]_13_0_Set light intensity.csv
#ID:	2
#type:	Set light intensity
#start_time:	16/04/2025 17.38.22
#
# Parameters
#Sample area:	0.25 cm²
#Comment:
#Resolution of the measurement unit:	10 (higher better/slower)
##Sample holder climate : temperature:	[30.245,30.245] °C
##Sample holder climate : relative humidity:	[31.615,31.615] %
##IR temperature [0]:	[31.91,31.91] °C
##Stage temperature:	[30.7062,30.7062] °C
##Light intensity:	[0,100] %
#
#wavelength (nm),intensity (W/m2/nm)
330,0
335.937,7.86027E-5
341.875,0.0101832
347.812,4.22252E-5
353.75,0.0981008
359.687,0.641701
365.625,2.56446
371.562,3.14082
377.5,2.82306
383.437,2.47047
389.375,3.14525
395.312,3.64421
401.25,2.38883
407.187,2.55974
413.125,4.51885
419.062,5.74234
425,4.18188
430.937,4.43982
436.875,6.62596
442.812,8.11049
448.75,5.78491
454.687,4.86793
460.625,4.84703
466.562,5.5596
472.5,4.93176
478.437,4.02661
484.375,3.71164
490.312,3.71005
496.25,3.82089
502.187,4.178
508.125,4.46592
514.062,4.59934
520,4.68663
525.937,4.83408
531.875,4.79111
537.812,4.88045
543.75,4.89556
549.687,4.90476
555.625,4.76158
561.562,4.45732
567.5,4.26463
573.437,4.08465
579.375,3.96589
585.312,3.87314
591.25,3.83191
597.187,3.59548
603.125,3.46646
609.062,3.25133
615,3.12439
620.937,3.06368
626.875,2.96807
632.812,2.93206
638.75,2.86819
644.687,2.74933
650.625,2.69185
656.562,2.39694
662.5,1.98955
668.437,1.74751
674.375,1.98614
680.312,2.28007
686.25,2.67648
692.187,2.57411
698.125,2.25658
704.062,2.69551
710,3.23484
715.937,3.45563
721.875,3.59398
727.812,4.0027
733.75,4.93885
739.687,5.45053
745.625,5.27821
751.562,5.74944
757.5,7.96355
763.437,8.59985
769.375,7.36562
775.312,5.21715
781.25,3.94078
787.187,3.05275
793.125,2.93669
799.062,3.36978
805,4.1852
810.937,3.75008
816.875,2.77187
822.812,2.46234
828.75,2.03798
834.687,1.6489
840.625,1.72161
846.562,1.68085
852.5,2.21402
858.437,2.69815
864.375,2.83096
870.312,2.70001
876.25,2.40892
882.187,2.40625
888.125,2.05698
894.062,1.56543
900,1.30826
905.937,1.04354
911.875,0.809872
917.812,0.629886
923.75,0.486966
929.687,0.358444
935.625,0.358009
941.562,0.378094
947.5,0.346769
953.437,0.419544
959.375,0.610614
965.313,0.78286
971.25,0.924835
977.188,0.945717
983.125,0.910619
989.062,0.942121
995,0.968016
1000.94,0.995278
1006.87,1.05722
1012.81,1.18656
1018.75,1.35381
1024.69,1.58356
1030.62,1.83342
1036.56,1.95673
1042.5,1.98259
1048.44,1.95057
1054.37,1.98178
1060.31,2.09475
1066.25,2.13906
1072.19,1.93848
1078.12,1.09003
1084.06,0.355721
1090,0
1095.94,0
1101.87,0
1107.81,0
1113.75,0
1119.69,0
1125.62,0
1131.56,0
1137.5,0
1143.44,0
1149.37,0
1155.31,0
1161.25,0
1167.19,0
1173.12,0
1179.06,0
1185,0
1190.94,0
1196.87,0
1202.81,0
1208.75,0
1214.69,0
1220.62,0
1226.56,0
1232.5,0
1238.44,0
1244.37,0
1250.31,0
1256.25,0
1262.19,0
1268.12,0
1274.06,0
1280,0
1285.94,0
1291.87,0
1297.81,0